#[FileName]
##
#FileName=
#[FileName]
##
#Scan_FileName=C:\Documents and Settings\Nanospectrometr\Мои документы\PbS\NL\925.arc_data
## *** Note this is the base FileName and may not be the final Scan_FileName
#Routine_FileName= "Not Saved"
#Type=SinglePoint
#TimeStamp=19.11.2014 13:16:08
##
#[NCL]
##
#Serial=210436
#Model=Spectra-Hub1
#WaveUnits=nm
#routine=ScanMono1
#Mono1Use=Active
#Mono1Serial=25580345
#Mono2Use=none
#Ch1Use=Active
#Ch2Use=none
#Ch3Use=none
#Shutter1Use=none
#Shutter2Use=none
#FilterUse=none
#FilterUse2=none
##
#[NCL_Acquisition]
##
#IntegrationTime=400
#IntegrationTime_Units=milliSeconds
#Storage=postFixed
#Operator=
#DataCalc=ch1
#Data_Channel_Num=1
#RefCalc=ch1
#Readings_per_Point=4
#DarkReading=1
#Cycles=1
#Cycle_Delay=0
#Cycle_Delay_Units=milliSeconds
##
#[NCL_Acquisition_Mono1]
##
#Start_nm=700.0000
#Start_(nm)=700.0000
#Stop_nm=1600.0000
#Stop_nm(nm)=1600.0000
#Increment=2.0000
#Increment_(nm)=2.0000
#PauseAfterMove=0
#PostMoveSettleTime=0
#Backwards_Scan=false
##
#[NCL_Triggers]
##
#InputTriggerOn=0
#InputTriggerOn_Str=false
#OutputTriggerOn=0
#OutputTriggerOn_Str=false
##
#[NCL_Ch1]
##
#Units=Micro Volts
#Unit_Index=2
#Type=IR
#Mode=voltage
#Gain=2
#unipolar=0
##
#[SR510_LockIn]
##
#SR510_Present=0
##
#[NCL_Mono1]
##
#Model=SP-2-500i
#Serial=25580345
#Grating=3
#Grating_Density=150
#Grating_Blaze=1.2um
#Use_Band_Pass_Slits=0
#Entry_Index=1
#Entry=side
#EntryType=Manual Slit
#EntryWidth=0
#EntryWidth_units=microns
#Exit_Index=4
#Exit=side
#ExitType=Manual Slit
#ExitWidth=0
#ExitWidth_units=microns
#Use_BandPass_Slit=0
#
#Wavelength	         Reading
#

  700.0000	 20.4245249430339
  702.0000	 16.3714090983074
  704.0000	 25.1928965250652
  706.0000	 15.2985254923503
  708.0000	 20.5437342325847
  710.0000	 21.6166178385417
  712.0000	 27.2194544474285
  714.0000	 21.8550364176433
  716.0000	 20.7821528116863
  718.0000	 24.4776407877605
  720.0000	 19.7092692057292
  722.0000	 25.6697336832683
  724.0000	 21.3781992594402
  726.0000	 24.5968500773113
  728.0000	 23.5239664713542
  730.0000	 25.7889429728191
  732.0000	 27.6962916056316
  734.0000	  26.384989420573
  736.0000	 21.3781992594402
  738.0000	 24.4776407877605
  740.0000	 26.1465708414714
  742.0000	 18.3979670206706
  744.0000	 19.4708506266277
  746.0000	 20.3053156534831
  748.0000	 22.4510828653972
  750.0000	 18.5171763102214
  752.0000	 21.3781992594402
  754.0000	 25.4313151041667
  756.0000	 25.5505243937175
  758.0000	 13.5103861490886
  760.0000	 20.3053156534831
  762.0000	 21.8550364176433
  764.0000	 23.0471293131511
  766.0000	 22.9279200236003
  768.0000	  21.497408548991
  770.0000	  21.497408548991
  772.0000	  21.497408548991
  774.0000	 23.7623850504558
  776.0000	 18.1595484415691
  778.0000	 22.6895014444988
  780.0000	  23.643175760905
  782.0000	 20.6629435221355
  784.0000	 24.4776407877605
  786.0000	 18.9940134684246
  788.0000	 14.8216883341472
  790.0000	 21.1397806803386
  792.0000	 24.0008036295574
  794.0000	 20.0668970743816
  796.0000	 20.9013621012371
  798.0000	 28.6499659220378
  800.0000	 16.6098276774089
  802.0000	 24.5968500773113
  804.0000	 20.0668970743816
  806.0000	  21.497408548991
  808.0000	 27.8155008951824
  810.0000	 27.1002451578777
  812.0000	 22.2126642862956
  814.0000	 22.4510828653972
  816.0000	 28.2923380533855
  818.0000	  23.643175760905
  820.0000	 26.1465708414714
  822.0000	 24.0008036295574
  824.0000	 23.0471293131511
  826.0000	 27.5770823160808
  828.0000	 25.0736872355144
  830.0000	 27.2194544474285
  832.0000	 27.1002451578777
  834.0000	 30.5573145548503
  836.0000	 24.7160593668621
  838.0000	  26.384989420573
  840.0000	 31.6301981608074
  842.0000	 28.2923380533855
  844.0000	 31.5109888712566
  846.0000	 29.2460123697917
  848.0000	 28.5307566324871
  850.0000	 26.5041987101238
  852.0000	 29.2460123697917
  854.0000	 29.7228495279949
  856.0000	 23.4047571818035
  858.0000	 25.4313151041667
  860.0000	 29.0075937906902
  862.0000	 31.3917795817058
  864.0000	 29.3652216593425
  866.0000	 27.6962916056316
  868.0000	 31.8686167399089
  870.0000	 36.9946161905925
  872.0000	 34.2528025309246
  874.0000	 39.6172205607097
  876.0000	 38.1867090861003
  878.0000	  37.829081217448
  880.0000	 38.0674997965496
  882.0000	 38.1867090861003
  884.0000	 46.2929407755535
  886.0000	 47.6042429606121
  888.0000	 51.0613123575847
  890.0000	 49.9884287516277
  892.0000	 51.5381495157878
  894.0000	  54.160753885905
  896.0000	 54.2799631754558
  898.0000	 65.9624735514324
  900.0000	 68.5850779215496
  902.0000	 69.1811243693035
  904.0000	  74.903170267741
  906.0000	  79.790751139323
  908.0000	 84.2014948527019
  910.0000	 88.8506571451824
  912.0000	 96.2416330973308
  914.0000	  100.65237681071
  916.0000	 105.778376261393
  918.0000	  109.83149210612
  920.0000	 119.964281717936
  922.0000	 131.527582804362
  924.0000	 142.494837443034
  926.0000	 150.124231974284
  928.0000	 156.084696451823
  930.0000	 169.555346171061
  932.0000	 180.164972941081
  934.0000	 191.728274027507
  936.0000	 201.265017191569
  938.0000	 218.431154886882
  940.0000	 234.882036844889
  942.0000	 252.167383829753
  944.0000	 270.644823710124
  946.0000	 285.665194193522
  948.0000	 300.089518229167
  950.0000	 323.096911112468
  952.0000	  341.81276957194
  954.0000	 369.350115458171
  956.0000	 391.165415445964
  958.0000	 415.603319803874
  960.0000	 440.279642740885
  962.0000	 468.651453653971
  964.0000	 490.943590799968
  966.0000	 513.116518656413
  968.0000	 542.442003885905
  970.0000	 571.409861246745
  972.0000	 607.768694559733
  974.0000	 632.921854654948
  976.0000	 668.565432230632
  978.0000	 695.149103800456
  980.0000	  727.81244913737
  982.0000	  765.95942179362
  984.0000	 797.549883524577
  986.0000	 831.405321756999
  988.0000	 866.572062174479
  990.0000	  901.73880259196
  992.0000	 936.547915140788
  994.0000	  964.32367960612
  996.0000	 1001.63618723551
  998.0000	 1039.66395060221
 1000.0000	 1071.85045878092
 1002.0000	 1108.56691996257
 1004.0000	 1139.32291666667
 1006.0000	 1179.01961008708
 1008.0000	 1217.40500132243
 1010.0000	 1251.49885813395
 1012.0000	 1290.48029581706
 1014.0000	 1324.69336191813
 1016.0000	   1358.429590861
 1018.0000	 1384.53642527262
 1020.0000	 1423.51786295573
 1022.0000	 1450.33995310466
 1024.0000	 1479.42701975505
 1026.0000	 1499.45418039958
 1028.0000	 1527.46836344401
 1030.0000	 1550.47575632731
 1032.0000	 1566.44980112712
 1034.0000	 1582.90068308512
 1036.0000	 1597.32500712077
 1038.0000	 1606.14649454753
 1040.0000	 1620.57081858317
 1042.0000	 1629.86914316813
 1044.0000	 1635.94881693522
 1046.0000	 1644.88951365153
 1048.0000	 1653.23416392008
 1050.0000	 1660.50593058268
 1052.0000	 1668.73137156169
 1054.0000	 1676.00313822428
 1056.0000	 1691.85797373454
 1058.0000	 1700.79867045085
 1060.0000	 1710.33541361491
 1062.0000	 1723.21001688639
 1064.0000	 1728.93206278483
 1066.0000	 1741.09141031901
 1068.0000	  1746.6942469279
 1070.0000	 1748.00554911296
 1072.0000	 1759.92647806803
 1074.0000	 1763.26433817546
 1076.0000	 1760.76094309489
 1078.0000	  1754.2044321696
 1080.0000	 1758.25754801432
 1082.0000	 1760.40331522624
 1084.0000	  1754.6812693278
 1086.0000	 1745.50215403239
 1088.0000	 1729.17048136393
 1090.0000	  1724.8789469401
 1092.0000	  1709.1433207194
 1094.0000	 1699.84499613444
 1096.0000	 1684.46699778239
 1098.0000	 1663.96299997966
 1100.0000	 1647.15449015299
 1102.0000	 1634.87593332926
 1104.0000	 1616.16007486979
 1106.0000	 1599.94761149089
 1108.0000	 1574.31761423747
 1110.0000	 1554.64808146159
 1112.0000	 1531.16385142008
 1114.0000	  1510.3022257487
 1116.0000	  1488.2485071818
 1118.0000	 1467.26767222087
 1120.0000	 1442.94897715251
 1122.0000	 1413.62349192301
 1124.0000	 1391.80819193522
 1126.0000	 1367.96633402507
 1128.0000	 1343.64763895671
 1130.0000	 1329.70015207926
 1132.0000	 1303.35489908854
 1134.0000	 1278.55936686198
 1136.0000	 1253.04857889811
 1138.0000	 1237.07453409831
 1140.0000	 1210.61007181803
 1142.0000	 1183.90719095866
 1144.0000	 1155.89300791423
 1146.0000	 1133.00482432048
 1148.0000	 1108.20929209391
 1150.0000	 1092.59287516276
 1152.0000	 1069.58548227946
 1154.0000	 1045.14757792155
 1156.0000	 1027.86223093669
 1158.0000	 1003.30511728923
 1160.0000	 986.854235331218
 1162.0000	 964.800516764323
 1164.0000	 946.203867594401
 1166.0000	 929.395357767741
 1168.0000	 904.122988382975
 1170.0000	 880.042711893718
 1172.0000	 867.048899332682
 1174.0000	 847.736994425456
 1176.0000	 825.325647989909
 1178.0000	 807.325045267741
 1180.0000	  781.21821085612
 1182.0000	 765.840212504069
 1184.0000	 745.455423990885
 1186.0000	 727.931658426921
 1188.0000	 707.427660624186
 1190.0000	 686.446825663249
 1192.0000	 672.499338785807
 1194.0000	 654.856363932292
 1196.0000	 636.855761210124
 1198.0000	 620.881716410319
 1200.0000	 609.676043192546
 1202.0000	 600.020090738932
 1204.0000	 582.615534464518
 1206.0000	 564.138094584147
 1208.0000	 552.813212076823
 1210.0000	 545.779863993327
 1212.0000	 535.408655802409
 1214.0000	  521.81879679362
 1216.0000	 507.632891337077
 1218.0000	 498.811403910319
 1220.0000	   488.2017771403
 1222.0000	 475.923220316569
 1224.0000	 466.028849283854
 1226.0000	 456.968943277995
 1228.0000	 440.518061319987
 1230.0000	 430.146853129069
 1232.0000	 418.464342753093
 1234.0000	 413.934389750163
 1236.0000	 398.437182108561
 1238.0000	 390.092531840007
 1240.0000	  381.50946299235
 1242.0000	 368.754069010417
 1244.0000	 365.416208902995
 1246.0000	 357.429186503093
 1248.0000	 344.435373942057
 1250.0000	 333.944956461589
 1252.0000	 325.481096903483
 1254.0000	 322.977701822917
 1256.0000	 309.626261393229
 1258.0000	 306.169191996257
 1260.0000	  297.46691385905
 1262.0000	 291.983286539714
 1264.0000	 287.930170694987
 1266.0000	 277.201334635417
 1268.0000	 266.710917154948
 1270.0000	 264.922777811686
 1272.0000	 261.942545572917
 1274.0000	  247.16059366862
 1276.0000	 242.988268534343
 1278.0000	  241.08091990153
 1280.0000	 238.577524820964
 1282.0000	  235.00124613444
 1284.0000	 223.080317179362
 1286.0000	 218.073527018229
 1288.0000	 212.232271830241
 1290.0000	 210.682551066081
 1292.0000	 204.006830851237
 1294.0000	 202.099482218425
 1296.0000	 198.880831400553
 1298.0000	 194.470087687175
 1300.0000	 189.463297526042
 1302.0000	 184.098879496257
 1304.0000	 181.357065836589
 1306.0000	 177.184740702311
 1308.0000	 175.992647806803
 1310.0000	 169.912974039714
 1312.0000	 168.005625406901
 1314.0000	 165.859858194987
 1316.0000	 160.733858744303
 1318.0000	 155.250231424968
 1320.0000	 156.919161478678
 1322.0000	 151.435534159343
 1324.0000	 153.819719950358
 1326.0000	 149.766604105632
 1328.0000	 142.971674601237
 1330.0000	 142.852465311686
 1332.0000	 139.633814493815
 1334.0000	 141.541163126628
 1336.0000	 133.911768595378
 1338.0000	 133.434931437175
 1340.0000	 128.547350565593
 1342.0000	 125.567118326823
 1344.0000	 125.686327616374
 1346.0000	 118.056933085124
 1348.0000	 113.288561503093
 1350.0000	 113.407770792643
 1352.0000	  114.36144510905
 1354.0000	 109.116236368815
 1356.0000	 106.255213419596
 1358.0000	 106.016794840495
 1360.0000	 103.632609049479
 1362.0000	 102.917353312175
 1364.0000	 101.606051127116
 1366.0000	 99.3410746256511
 1368.0000	 99.1026560465496
 1370.0000	 94.9303309122722
 1372.0000	 93.4998194376628
 1374.0000	 94.2150751749675
 1376.0000	 89.3274943033855
 1378.0000	 93.8574473063152
 1380.0000	 90.7580057779949
 1382.0000	 90.2811686197917
 1384.0000	 84.9167505900066
 1386.0000	 81.6980997721355
 1388.0000	 82.8901926676433
 1390.0000	 78.9562861124675
 1392.0000	  82.532564798991
 1394.0000	 76.4528910319011
 1396.0000	 79.5523325602214
 1398.0000	 80.2675882975261
 1400.0000	 78.4794489542644
 1402.0000	 75.1415888468425
 1404.0000	  71.088473002116
 1406.0000	 74.1879145304363
 1408.0000	 75.1415888468425
 1410.0000	 71.3268915812175
 1412.0000	 70.6116358439128
 1414.0000	 69.8963801066081
 1416.0000	 70.9692637125652
 1418.0000	 67.7506128946941
 1420.0000	  69.419542948405
 1422.0000	 65.4856363932292
 1424.0000	 69.1811243693035
 1426.0000	 70.6116358439128
 1428.0000	 68.9427057902019
 1430.0000	 70.2540079752605
 1432.0000	   65.60484568278
 1434.0000	  64.531962076823
 1436.0000	 61.1941019694011
 1438.0000	 60.2404276529949
 1440.0000	 53.3262888590496
 1442.0000	 61.1941019694011
 1444.0000	 60.9556833902996
 1446.0000	  60.717264811198
 1448.0000	 59.2867533365886
 1450.0000	 58.5714975992839
 1452.0000	 57.3794047037761
 1454.0000	  56.902567545573
 1456.0000	 56.3065210978191
 1458.0000	 55.1144282023113
 1460.0000	 57.1409861246746
 1462.0000	 54.9952189127605
 1464.0000	 53.4454981486003
 1466.0000	 53.4454981486003
 1468.0000	 54.2799631754558
 1470.0000	 48.6771265665691
 1472.0000	 50.2268473307292
 1474.0000	 53.9223353068035
 1476.0000	 50.5844751993816
 1478.0000	 52.6110331217449
 1480.0000	 52.3726145426433
 1482.0000	 48.5579172770183
 1484.0000	 54.9952189127605
 1486.0000	 50.8228937784831
 1488.0000	 48.4387079874675
 1490.0000	 49.6308008829753
 1492.0000	 52.1341959635417
 1494.0000	  52.014986673991
 1496.0000	 47.3658243815105
 1498.0000	 48.5579172770183
 1500.0000	 47.1274058024089
 1502.0000	 50.4652659098308
 1504.0000	 51.0613123575847
 1506.0000	 51.4189402262371
 1508.0000	 48.6771265665691
 1510.0000	  46.531359354655
 1512.0000	 47.6042429606121
 1514.0000	  48.200289408366
 1516.0000	 48.3194986979167
 1518.0000	 50.1076380411785
 1520.0000	 48.7963358561199
 1522.0000	 47.2466150919597
 1524.0000	 49.3923823038738
 1526.0000	 45.5776850382488
 1528.0000	 43.6703364054363
 1530.0000	 45.8161036173503
 1532.0000	 44.7432200113933
 1534.0000	 40.2132670084636
 1536.0000	 38.7827555338542
 1538.0000	 40.8093134562175
 1540.0000	 38.0674997965496
 1542.0000	 38.7827555338542
 1544.0000	 37.7098719278972
 1546.0000	 43.4319178263347
 1548.0000	 39.6172205607097
 1550.0000	 42.0014063517253
 1552.0000	 45.2200571695964
 1554.0000	  37.829081217448
 1556.0000	 37.4714533487956
 1558.0000	 40.6901041666667
 1560.0000	  44.385592142741
 1562.0000	 40.9285227457683
 1564.0000	 45.1008478800456
 1566.0000	 40.9285227457683
 1568.0000	 37.3522440592449
 1570.0000	 40.9285227457683
 1572.0000	   42.71666208903
 1574.0000	 36.6369883219402
 1576.0000	 40.9285227457683
 1578.0000	 40.6901041666667
 1580.0000	 33.8951746622722
 1582.0000	 39.0211741129558
 1584.0000	 39.4980112711589
 1586.0000	 40.2132670084636
 1588.0000	 39.2595926920574
 1590.0000	 37.5906626383464
 1592.0000	 36.9946161905925
 1594.0000	 34.4912211100261
 1596.0000	 33.0607096354167
 1598.0000	 34.2528025309246
 1600.0000	 40.0940577189128
