#[FileName]
##
#FileName=
#[FileName]
##
#Scan_FileName=C:\Documents and Settings\Nanospectrometr\Мои документы\PbS\PbS new times\spectra\1240\04_20120925 PbS1240 532 05mm ext.arc_data
## *** Note this is the base FileName and may not be the final Scan_FileName
#Routine_FileName= "Not Saved"
#Type=SinglePoint
#TimeStamp=25.09.2012 19:08:44
##
#[NCL]
##
#Serial=210436
#Model=Spectra-Hub1
#WaveUnits=nm
#routine=ScanMono1
#Mono1Use=Active
#Mono1Serial=25580345
#Mono2Use=none
#Ch1Use=Active
#Ch2Use=none
#Ch3Use=none
#Shutter1Use=none
#Shutter2Use=none
#FilterUse=none
#FilterUse2=none
##
#[NCL_Acquisition]
##
#IntegrationTime=150
#IntegrationTime_Units=milliSeconds
#Storage=postFixed
#Operator=
#DataCalc=ch1
#Data_Channel_Num=1
#RefCalc=ch1
#Readings_per_Point=3
#DarkReading=1
#Cycles=3
#Cycle_Delay=0
#Cycle_Delay_Units=milliSeconds
##
#[NCL_Acquisition_Mono1]
##
#Start_nm=700.0000
#Start_(nm)=700.0000
#Stop_nm=1400.0000
#Stop_nm(nm)=1400.0000
#Increment=2.0000
#Increment_(nm)=2.0000
#PauseAfterMove=0
#PostMoveSettleTime=0
#Backwards_Scan=false
##
#[NCL_Triggers]
##
#InputTriggerOn=0
#InputTriggerOn_Str=false
#OutputTriggerOn=0
#OutputTriggerOn_Str=false
##
#[NCL_Ch1]
##
#Units=Micro Volts
#Unit_Index=2
#Type=IR
#Mode=voltage
#Gain=3
#unipolar=0
##
#[SR510_LockIn]
##
#SR510_Present=0
##
#[NCL_Mono1]
##
#Model=SP-2-500i
#Serial=25580345
#Grating=3
#Grating_Density=150
#Grating_Blaze=1.2um
#Use_Band_Pass_Slits=0
#Entry_Index=1
#Entry=side
#EntryType=Manual Slit
#EntryWidth=0
#EntryWidth_units=microns
#Exit_Index=4
#Exit=side
#ExitType=Manual Slit
#ExitWidth=0
#ExitWidth_units=microns
#Use_BandPass_Slit=0
#
#Wavelength	         Reading
#

  700.0000	-5606.63011338959
  702.0000	 3442.29804144974
  704.0000	 7220.50136990026
  706.0000	-654.729207356773
  708.0000	-8166.12243652344
  710.0000	-3045.14567057292
  712.0000	 7154.29517957916
  714.0000	 5414.07267252604
  716.0000	-4486.76215277761
  718.0000	-8023.96138509115
  720.0000	  1819.4834391276
  722.0000	 7877.34985351562
  724.0000	 1093.03792317708
  726.0000	-7534.57811143647
  728.0000	-4893.62080891927
  730.0000	 4378.84860568593
  732.0000	 6839.45549858958
  734.0000	-8801.69338650157
  736.0000	-2104.90756564662
  738.0000	 6326.33633083776
  740.0000	 3283.18277994791
  742.0000	-5948.89322916667
  744.0000	-6362.40641276042
  746.0000	 2512.06292046458
  748.0000	 7753.45696343333
  750.0000	 530.285305447131
  752.0000	-8480.28394911016
  754.0000	-3845.76585557709
  756.0000	 6183.32756890208
  758.0000	 6520.33487955729
  760.0000	-2929.47557237397
  762.0000	-7521.31144205729
  764.0000	 509.601169162492
  766.0000	 7928.97542317708
  768.0000	 2868.86427137603
  770.0000	 -6292.0888264974
  772.0000	-6080.96652560756
  774.0000	 3984.45129394531
  776.0000	 7841.06784396718
  778.0000	-618.447197808076
  780.0000	-8682.33574761277
  782.0000	-1764.08555772553
  784.0000	  7112.4606662328
  786.0000	 4953.80825466588
  788.0000	-4207.52631293386
  790.0000	-7441.88096788178
  792.0000	  598.99224175364
  794.0000	 8552.04264322916
  796.0000	 2238.93059624583
  798.0000	-6368.50992838542
  800.0000	 202.518039279679
  802.0000	 7028.66448296458
  804.0000	-1477.72894965261
  806.0000	-8084.65745713959
  808.0000	-1808.03934733073
  810.0000	 7083.93520779088
  812.0000	 4952.66384548619
  814.0000	 -4317.0081244573
  816.0000	-7169.72351074219
  818.0000	 2136.27285427526
  820.0000	 2228.12228732655
  822.0000	 1169.33186848958
  824.0000	  5051.2949625651
  826.0000	 7116.65683322499
  828.0000	-1706.27170138881
  830.0000	-7703.65397135417
  832.0000	-938.373141818494
  834.0000	 7691.27739800364
  836.0000	 4098.59551323801
  838.0000	-6055.45043945313
  840.0000	-6426.15424262136
  842.0000	  8606.8895128039
  844.0000	-1056.16251627604
  846.0000	-7753.32980685756
  848.0000	  -2056.884765625
  850.0000	 7003.44509548619
  852.0000	 5671.86143663203
  854.0000	-3606.79626464844
  856.0000	-6992.84871419271
  858.0000	  2275.4245334203
  860.0000	 9028.54071723099
  862.0000	 2168.69778103307
  864.0000	-3935.24169921875
  866.0000	 6075.28686523437
  868.0000	 7058.41912163645
  870.0000	-1748.95392523855
  872.0000	-7317.26752387136
  874.0000	 69.3851047093667
  876.0000	 8490.32931857655
  878.0000	 4213.75698513463
  880.0000	-5755.10660807292
  882.0000	 -5404.6630859375
  884.0000	 4356.76574707031
  886.0000	 242.190890842179
  888.0000	-7124.58292643229
  890.0000	-1723.48022460938
  892.0000	 7463.87905544713
  894.0000	 9528.60514322916
  896.0000	-2242.27905273438
  898.0000	-6493.37768554688
  900.0000	 9919.86592610677
  902.0000	 4285.43090820312
  904.0000	 -5635.9608968099
  906.0000	-2690.03974066824
  908.0000	 6740.57006835937
  910.0000	 7961.23080783437
  912.0000	 -888.65492078985
  914.0000	-6336.00023057709
  916.0000	 1308.48354763463
  918.0000	 9537.88757324218
  920.0000	 4626.97347005208
  922.0000	-4460.99175347214
  924.0000	 5354.98725043411
  926.0000	 10158.0301920573
  928.0000	 410.164727105202
  930.0000	-6107.07600911459
  932.0000	 726.064046223957
  934.0000	 9610.74829101562
  936.0000	 6526.09931098099
  938.0000	-2738.95263671875
  940.0000	-4114.36292860235
  942.0000	 5706.65995279948
  944.0000	 3503.33319769974
  946.0000	-5561.87099880626
  948.0000	 52.8547498916596
  950.0000	  9116.8297661677
  952.0000	 8350.37231445312
  954.0000	-746.366712782037
  956.0000	-4568.22713216146
  958.0000	 10990.5666775174
  960.0000	 6139.75524902343
  962.0000	-3737.04698350678
  964.0000	-2655.70746527761
  966.0000	 11722.9461669922
  968.0000	 3439.45821126302
  970.0000	-4619.64077419688
  972.0000	  1170.0524224177
  974.0000	 10487.6200358073
  976.0000	 9089.78780110677
  978.0000	-8.30756293386003
  980.0000	 -3629.7268337672
  982.0000	 5489.60367838541
  984.0000	 12670.0083414714
  986.0000	  6196.0008409289
  988.0000	-1806.42869737397
  990.0000	                0
  992.0000	                0
  994.0000	                0
  996.0000	                0
  998.0000	                0
 1000.0000	                0
 1002.0000	                0
 1004.0000	                0
 1006.0000	                0
 1008.0000	                0
 1010.0000	                0
 1012.0000	                0
 1014.0000	                0
 1016.0000	                0
 1018.0000	                0
 1020.0000	                0
 1022.0000	                0
 1024.0000	                0
 1026.0000	                0
 1028.0000	                0
 1030.0000	                0
 1032.0000	                0
 1034.0000	                0
 1036.0000	                0
 1038.0000	                0
 1040.0000	                0
 1042.0000	                0
 1044.0000	                0
 1046.0000	                0
 1048.0000	                0
 1050.0000	                0
 1052.0000	                0
 1054.0000	                0
 1056.0000	                0
 1058.0000	                0
 1060.0000	                0
 1062.0000	                0
 1064.0000	                0
 1066.0000	                0
 1068.0000	                0
 1070.0000	                0
 1072.0000	                0
 1074.0000	                0
 1076.0000	                0
 1078.0000	                0
 1080.0000	                0
 1082.0000	                0
 1084.0000	                0
 1086.0000	                0
 1088.0000	                0
 1090.0000	                0
 1092.0000	                0
 1094.0000	                0
 1096.0000	                0
 1098.0000	                0
 1100.0000	                0
 1102.0000	                0
 1104.0000	                0
 1106.0000	                0
 1108.0000	                0
 1110.0000	                0
 1112.0000	                0
 1114.0000	                0
 1116.0000	                0
 1118.0000	                0
 1120.0000	                0
 1122.0000	                0
 1124.0000	                0
 1126.0000	                0
 1128.0000	                0
 1130.0000	                0
 1132.0000	                0
 1134.0000	                0
 1136.0000	                0
 1138.0000	                0
 1140.0000	                0
 1142.0000	                0
 1144.0000	                0
 1146.0000	                0
 1148.0000	                0
 1150.0000	                0
 1152.0000	                0
 1154.0000	                0
 1156.0000	                0
 1158.0000	                0
 1160.0000	                0
 1162.0000	                0
 1164.0000	                0
 1166.0000	                0
 1168.0000	                0
 1170.0000	                0
 1172.0000	                0
 1174.0000	                0
 1176.0000	                0
 1178.0000	                0
 1180.0000	                0
 1182.0000	                0
 1184.0000	                0
 1186.0000	                0
 1188.0000	                0
 1190.0000	                0
 1192.0000	                0
 1194.0000	                0
 1196.0000	                0
 1198.0000	                0
 1200.0000	                0
 1202.0000	                0
 1204.0000	                0
 1206.0000	                0
 1208.0000	                0
 1210.0000	                0
 1212.0000	                0
 1214.0000	                0
 1216.0000	                0
 1218.0000	                0
 1220.0000	                0
 1222.0000	                0
 1224.0000	                0
 1226.0000	                0
 1228.0000	                0
 1230.0000	                0
 1232.0000	                0
 1234.0000	                0
 1236.0000	                0
 1238.0000	                0
 1240.0000	                0
 1242.0000	                0
 1244.0000	                0
 1246.0000	                0
 1248.0000	                0
 1250.0000	                0
 1252.0000	                0
 1254.0000	                0
 1256.0000	                0
 1258.0000	                0
 1260.0000	                0
 1262.0000	                0
 1264.0000	                0
 1266.0000	                0
 1268.0000	                0
 1270.0000	                0
 1272.0000	                0
 1274.0000	                0
 1276.0000	                0
 1278.0000	                0
 1280.0000	                0
 1282.0000	                0
 1284.0000	                0
 1286.0000	                0
 1288.0000	                0
 1290.0000	                0
 1292.0000	                0
 1294.0000	                0
 1296.0000	                0
 1298.0000	                0
 1300.0000	                0
 1302.0000	                0
 1304.0000	                0
 1306.0000	                0
 1308.0000	                0
 1310.0000	                0
 1312.0000	                0
 1314.0000	                0
 1316.0000	                0
 1318.0000	                0
 1320.0000	                0
 1322.0000	                0
 1324.0000	                0
 1326.0000	                0
 1328.0000	                0
 1330.0000	                0
 1332.0000	                0
 1334.0000	                0
 1336.0000	                0
 1338.0000	                0
 1340.0000	                0
 1342.0000	                0
 1344.0000	                0
 1346.0000	                0
 1348.0000	                0
 1350.0000	                0
 1352.0000	                0
 1354.0000	                0
 1356.0000	                0
 1358.0000	                0
 1360.0000	                0
 1362.0000	                0
 1364.0000	                0
 1366.0000	                0
 1368.0000	                0
 1370.0000	                0
 1372.0000	                0
 1374.0000	                0
 1376.0000	                0
 1378.0000	                0
 1380.0000	                0
 1382.0000	                0
 1384.0000	                0
 1386.0000	                0
 1388.0000	                0
 1390.0000	                0
 1392.0000	                0
 1394.0000	                0
 1396.0000	                0
 1398.0000	                0
 1400.0000	                0
